#  E (eV)   dos(E)     Int dos(E) EFermi =    0.127 eV
  -5.000  0.0000E+00  0.4800E+02
  -4.990  0.0000E+00  0.4800E+02
  -4.980  0.0000E+00  0.4800E+02
  -4.970  0.0000E+00  0.4800E+02
  -4.960  0.0000E+00  0.4800E+02
  -4.950  0.0000E+00  0.4800E+02
  -4.940  0.0000E+00  0.4800E+02
  -4.930  0.0000E+00  0.4800E+02
  -4.920  0.0000E+00  0.4800E+02
  -4.910  0.0000E+00  0.4800E+02
  -4.900  0.0000E+00  0.4800E+02
  -4.890  0.0000E+00  0.4800E+02
  -4.880  0.0000E+00  0.4800E+02
  -4.870  0.0000E+00  0.4800E+02
  -4.860  0.0000E+00  0.4800E+02
  -4.850  0.0000E+00  0.4800E+02
  -4.840  0.0000E+00  0.4800E+02
  -4.830  0.0000E+00  0.4800E+02
  -4.820  0.0000E+00  0.4800E+02
  -4.810  0.0000E+00  0.4800E+02
  -4.800  0.0000E+00  0.4800E+02
  -4.790  0.0000E+00  0.4800E+02
  -4.780  0.0000E+00  0.4800E+02
  -4.770  0.0000E+00  0.4800E+02
  -4.760  0.1133E+01  0.4800E+02
  -4.750  0.1433E+01  0.4802E+02
  -4.740  0.1318E+01  0.4804E+02
  -4.730  0.1306E+01  0.4805E+02
  -4.720  0.1375E+01  0.4806E+02
  -4.710  0.1139E+01  0.4807E+02
  -4.700  0.1130E+01  0.4809E+02
  -4.690  0.1135E+01  0.4810E+02
  -4.680  0.1148E+01  0.4811E+02
  -4.670  0.1159E+01  0.4812E+02
  -4.660  0.1045E+01  0.4813E+02
  -4.650  0.1038E+01  0.4814E+02
  -4.640  0.1048E+01  0.4815E+02
  -4.630  0.1059E+01  0.4816E+02
  -4.620  0.1072E+01  0.4817E+02
  -4.610  0.1061E+01  0.4818E+02
  -4.600  0.1040E+01  0.4819E+02
  -4.590  0.1017E+01  0.4820E+02
  -4.580  0.9956E+00  0.4821E+02
  -4.570  0.9938E+00  0.4822E+02
  -4.560  0.1004E+01  0.4823E+02
  -4.550  0.1016E+01  0.4824E+02
  -4.540  0.1024E+01  0.4825E+02
  -4.530  0.1022E+01  0.4826E+02
  -4.520  0.1001E+01  0.4827E+02
  -4.510  0.9936E+00  0.4828E+02
  -4.500  0.9866E+00  0.4829E+02
  -4.490  0.9812E+00  0.4830E+02
  -4.480  0.9700E+00  0.4831E+02
  -4.470  0.9788E+00  0.4832E+02
  -4.460  0.9885E+00  0.4833E+02
  -4.450  0.9940E+00  0.4834E+02
  -4.440  0.1005E+01  0.4835E+02
  -4.430  0.1017E+01  0.4836E+02
  -4.420  0.9879E+00  0.4837E+02
  -4.410  0.9632E+00  0.4838E+02
  -4.400  0.9786E+00  0.4839E+02
  -4.390  0.9735E+00  0.4840E+02
  -4.380  0.9732E+00  0.4841E+02
  -4.370  0.9735E+00  0.4842E+02
  -4.360  0.9725E+00  0.4843E+02
  -4.350  0.9758E+00  0.4844E+02
  -4.340  0.9850E+00  0.4845E+02
  -4.330  0.9942E+00  0.4846E+02
  -4.320  0.1004E+01  0.4847E+02
  -4.310  0.1010E+01  0.4848E+02
  -4.300  0.9877E+00  0.4849E+02
  -4.290  0.9769E+00  0.4850E+02
  -4.280  0.9700E+00  0.4851E+02
  -4.270  0.9774E+00  0.4852E+02
  -4.260  0.9787E+00  0.4853E+02
  -4.250  0.9803E+00  0.4854E+02
  -4.240  0.9793E+00  0.4855E+02
  -4.230  0.9814E+00  0.4856E+02
  -4.220  0.9828E+00  0.4857E+02
  -4.210  0.9914E+00  0.4858E+02
  -4.200  0.1000E+01  0.4859E+02
  -4.190  0.1006E+01  0.4860E+02
  -4.180  0.1015E+01  0.4861E+02
  -4.170  0.1010E+01  0.4862E+02
  -4.160  0.9987E+00  0.4863E+02
  -4.150  0.9907E+00  0.4864E+02
  -4.140  0.9847E+00  0.4865E+02
  -4.130  0.9909E+00  0.4866E+02
  -4.120  0.9946E+00  0.4867E+02
  -4.110  0.9943E+00  0.4868E+02
  -4.100  0.9962E+00  0.4869E+02
  -4.090  0.9990E+00  0.4870E+02
  -4.080  0.1002E+01  0.4871E+02
  -4.070  0.1004E+01  0.4872E+02
  -4.060  0.1010E+01  0.4873E+02
  -4.050  0.1019E+01  0.4874E+02
  -4.040  0.1027E+01  0.4875E+02
  -4.030  0.1028E+01  0.4876E+02
  -4.020  0.1027E+01  0.4877E+02
  -4.010  0.1024E+01  0.4878E+02
  -4.000  0.1016E+01  0.4879E+02
  -3.990  0.1012E+01  0.4880E+02
  -3.980  0.1009E+01  0.4881E+02
  -3.970  0.1019E+01  0.4882E+02
  -3.960  0.1022E+01  0.4883E+02
  -3.950  0.1025E+01  0.4884E+02
  -3.940  0.1027E+01  0.4885E+02
  -3.930  0.1028E+01  0.4886E+02
  -3.920  0.1030E+01  0.4887E+02
  -3.910  0.1034E+01  0.4888E+02
  -3.900  0.1040E+01  0.4889E+02
  -3.890  0.1049E+01  0.4890E+02
  -3.880  0.1053E+01  0.4891E+02
  -3.870  0.1052E+01  0.4893E+02
  -3.860  0.1055E+01  0.4894E+02
  -3.850  0.1058E+01  0.4895E+02
  -3.840  0.1053E+01  0.4896E+02
  -3.830  0.1049E+01  0.4897E+02
  -3.820  0.1048E+01  0.4898E+02
  -3.810  0.1052E+01  0.4899E+02
  -3.800  0.1058E+01  0.4900E+02
  -3.790  0.1061E+01  0.4901E+02
  -3.780  0.1064E+01  0.4902E+02
  -3.770  0.1068E+01  0.4903E+02
  -3.760  0.1072E+01  0.4904E+02
  -3.750  0.1076E+01  0.4905E+02
  -3.740  0.1080E+01  0.4906E+02
  -3.730  0.1088E+01  0.4907E+02
  -3.720  0.1091E+01  0.4908E+02
  -3.710  0.1093E+01  0.4910E+02
  -3.700  0.1097E+01  0.4911E+02
  -3.690  0.1101E+01  0.4912E+02
  -3.680  0.1105E+01  0.4913E+02
  -3.670  0.1102E+01  0.4914E+02
  -3.660  0.1098E+01  0.4915E+02
  -3.650  0.1098E+01  0.4916E+02
  -3.640  0.1104E+01  0.4917E+02
  -3.630  0.1113E+01  0.4918E+02
  -3.620  0.1117E+01  0.4919E+02
  -3.610  0.1121E+01  0.4921E+02
  -3.600  0.1125E+01  0.4922E+02
  -3.590  0.1132E+01  0.4923E+02
  -3.580  0.1136E+01  0.4924E+02
  -3.570  0.1141E+01  0.4925E+02
  -3.560  0.1153E+01  0.4926E+02
  -3.550  0.1194E+01  0.4927E+02
  -3.540  0.1224E+01  0.4929E+02
  -3.530  0.1255E+01  0.4930E+02
  -3.520  0.1288E+01  0.4931E+02
  -3.510  0.2337E+01  0.4933E+02
  -3.500  0.5263E+01  0.4936E+02
  -3.490  0.6432E+01  0.4942E+02
  -3.480  0.8747E+01  0.4949E+02
  -3.470  0.7513E+01  0.4959E+02
  -3.460  0.5220E+01  0.4965E+02
  -3.450  0.5177E+01  0.4970E+02
  -3.440  0.5111E+01  0.4975E+02
  -3.430  0.4916E+01  0.4980E+02
  -3.420  0.4822E+01  0.4985E+02
  -3.410  0.4728E+01  0.4990E+02
  -3.400  0.4672E+01  0.4995E+02
  -3.390  0.4650E+01  0.4999E+02
  -3.380  0.4504E+01  0.5004E+02
  -3.370  0.3902E+01  0.5008E+02
  -3.360  0.3918E+01  0.5012E+02
  -3.350  0.3919E+01  0.5016E+02
  -3.340  0.3872E+01  0.5020E+02
  -3.330  0.3857E+01  0.5024E+02
  -3.320  0.3886E+01  0.5028E+02
  -3.310  0.3937E+01  0.5032E+02
  -3.300  0.3965E+01  0.5036E+02
  -3.290  0.3963E+01  0.5040E+02
  -3.280  0.3997E+01  0.5044E+02
  -3.270  0.3989E+01  0.5048E+02
  -3.260  0.3999E+01  0.5052E+02
  -3.250  0.4057E+01  0.5056E+02
  -3.240  0.4133E+01  0.5060E+02
  -3.230  0.4194E+01  0.5064E+02
  -3.220  0.4313E+01  0.5068E+02
  -3.210  0.4467E+01  0.5073E+02
  -3.200  0.4567E+01  0.5077E+02
  -3.190  0.4751E+01  0.5082E+02
  -3.180  0.6029E+01  0.5087E+02
  -3.170  0.4661E+01  0.5092E+02
  -3.160  0.4488E+01  0.5097E+02
  -3.150  0.4326E+01  0.5101E+02
  -3.140  0.4257E+01  0.5105E+02
  -3.130  0.4098E+01  0.5110E+02
  -3.120  0.4019E+01  0.5114E+02
  -3.110  0.3956E+01  0.5118E+02
  -3.100  0.3966E+01  0.5122E+02
  -3.090  0.3905E+01  0.5126E+02
  -3.080  0.3891E+01  0.5129E+02
  -3.070  0.3935E+01  0.5133E+02
  -3.060  0.3957E+01  0.5137E+02
  -3.050  0.4304E+01  0.5141E+02
  -3.040  0.6070E+01  0.5146E+02
  -3.030  0.4146E+01  0.5151E+02
  -3.020  0.3819E+01  0.5155E+02
  -3.010  0.3735E+01  0.5158E+02
  -3.000  0.3666E+01  0.5162E+02
  -2.990  0.3588E+01  0.5166E+02
  -2.980  0.3532E+01  0.5169E+02
  -2.970  0.3489E+01  0.5173E+02
  -2.960  0.3480E+01  0.5176E+02
  -2.950  0.3436E+01  0.5180E+02
  -2.940  0.3290E+01  0.5183E+02
  -2.930  0.3170E+01  0.5186E+02
  -2.920  0.3465E+01  0.5190E+02
  -2.910  0.3422E+01  0.5193E+02
  -2.900  0.3309E+01  0.5197E+02
  -2.890  0.3291E+01  0.5200E+02
  -2.880  0.3289E+01  0.5203E+02
  -2.870  0.3289E+01  0.5207E+02
  -2.860  0.3248E+01  0.5210E+02
  -2.850  0.3142E+01  0.5213E+02
  -2.840  0.3072E+01  0.5216E+02
  -2.830  0.3020E+01  0.5219E+02
  -2.820  0.2975E+01  0.5222E+02
  -2.810  0.2969E+01  0.5225E+02
  -2.800  0.2956E+01  0.5228E+02
  -2.790  0.2938E+01  0.5231E+02
  -2.780  0.2931E+01  0.5234E+02
  -2.770  0.2938E+01  0.5237E+02
  -2.760  0.2881E+01  0.5240E+02
  -2.750  0.2837E+01  0.5243E+02
  -2.740  0.2829E+01  0.5246E+02
  -2.730  0.2828E+01  0.5248E+02
  -2.720  0.2810E+01  0.5251E+02
  -2.710  0.2785E+01  0.5254E+02
  -2.700  0.2849E+01  0.5257E+02
  -2.690  0.2811E+01  0.5260E+02
  -2.680  0.3022E+01  0.5263E+02
  -2.670  0.3479E+01  0.5266E+02
  -2.660  0.2520E+01  0.5269E+02
  -2.650  0.3857E+01  0.5271E+02
  -2.640  0.2294E+01  0.5274E+02
  -2.630  0.2297E+01  0.5277E+02
  -2.620  0.2300E+01  0.5279E+02
  -2.610  0.2335E+01  0.5281E+02
  -2.600  0.2331E+01  0.5284E+02
  -2.590  0.2333E+01  0.5286E+02
  -2.580  0.2475E+01  0.5288E+02
  -2.570  0.2504E+01  0.5291E+02
  -2.560  0.2511E+01  0.5293E+02
  -2.550  0.2931E+01  0.5296E+02
  -2.540  0.2563E+01  0.5299E+02
  -2.530  0.3016E+01  0.5302E+02
  -2.520  0.2427E+01  0.5305E+02
  -2.510  0.2452E+01  0.5307E+02
  -2.500  0.2448E+01  0.5310E+02
  -2.490  0.2446E+01  0.5312E+02
  -2.480  0.2460E+01  0.5314E+02
  -2.470  0.2545E+01  0.5317E+02
  -2.460  0.2564E+01  0.5320E+02
  -2.450  0.2644E+01  0.5322E+02
  -2.440  0.2683E+01  0.5325E+02
  -2.430  0.2568E+01  0.5327E+02
  -2.420  0.2585E+01  0.5330E+02
  -2.410  0.2606E+01  0.5333E+02
  -2.400  0.2564E+01  0.5335E+02
  -2.390  0.2597E+01  0.5338E+02
  -2.380  0.2535E+01  0.5340E+02
  -2.370  0.2492E+01  0.5343E+02
  -2.360  0.2479E+01  0.5345E+02
  -2.350  0.2467E+01  0.5348E+02
  -2.340  0.2468E+01  0.5350E+02
  -2.330  0.2481E+01  0.5353E+02
  -2.320  0.2481E+01  0.5355E+02
  -2.310  0.2477E+01  0.5358E+02
  -2.300  0.2496E+01  0.5360E+02
  -2.290  0.2508E+01  0.5363E+02
  -2.280  0.2511E+01  0.5365E+02
  -2.270  0.3385E+01  0.5368E+02
  -2.260  0.2365E+01  0.5370E+02
  -2.250  0.2375E+01  0.5373E+02
  -2.240  0.2385E+01  0.5375E+02
  -2.230  0.2392E+01  0.5377E+02
  -2.220  0.2403E+01  0.5380E+02
  -2.210  0.2441E+01  0.5382E+02
  -2.200  0.2479E+01  0.5385E+02
  -2.190  0.2990E+01  0.5387E+02
  -2.180  0.3214E+01  0.5390E+02
  -2.170  0.3407E+01  0.5394E+02
  -2.160  0.3515E+01  0.5397E+02
  -2.150  0.3510E+01  0.5401E+02
  -2.140  0.3588E+01  0.5404E+02
  -2.130  0.3695E+01  0.5408E+02
  -2.120  0.3775E+01  0.5412E+02
  -2.110  0.3733E+01  0.5415E+02
  -2.100  0.3813E+01  0.5419E+02
  -2.090  0.3858E+01  0.5423E+02
  -2.080  0.3914E+01  0.5427E+02
  -2.070  0.3917E+01  0.5431E+02
  -2.060  0.3884E+01  0.5435E+02
  -2.050  0.3852E+01  0.5439E+02
  -2.040  0.3804E+01  0.5442E+02
  -2.030  0.3883E+01  0.5446E+02
  -2.020  0.3958E+01  0.5450E+02
  -2.010  0.4097E+01  0.5454E+02
  -2.000  0.4289E+01  0.5458E+02
  -1.990  0.4409E+01  0.5463E+02
  -1.980  0.5390E+01  0.5467E+02
  -1.970  0.4760E+01  0.5472E+02
  -1.960  0.4610E+01  0.5477E+02
  -1.950  0.4551E+01  0.5482E+02
  -1.940  0.4627E+01  0.5486E+02
  -1.930  0.4815E+01  0.5491E+02
  -1.920  0.4530E+01  0.5496E+02
  -1.910  0.4463E+01  0.5500E+02
  -1.900  0.4413E+01  0.5505E+02
  -1.890  0.4406E+01  0.5509E+02
  -1.880  0.4478E+01  0.5513E+02
  -1.870  0.4830E+01  0.5518E+02
  -1.860  0.5132E+01  0.5524E+02
  -1.850  0.4645E+01  0.5529E+02
  -1.840  0.4499E+01  0.5533E+02
  -1.830  0.4416E+01  0.5538E+02
  -1.820  0.3483E+01  0.5542E+02
  -1.810  0.5032E+01  0.5546E+02
  -1.800  0.5504E+01  0.5552E+02
  -1.790  0.4864E+01  0.5557E+02
  -1.780  0.4420E+01  0.5562E+02
  -1.770  0.4371E+01  0.5566E+02
  -1.760  0.4468E+01  0.5571E+02
  -1.750  0.4410E+01  0.5575E+02
  -1.740  0.4316E+01  0.5579E+02
  -1.730  0.4289E+01  0.5584E+02
  -1.720  0.4472E+01  0.5588E+02
  -1.710  0.4397E+01  0.5593E+02
  -1.700  0.4355E+01  0.5597E+02
  -1.690  0.4418E+01  0.5601E+02
  -1.680  0.4531E+01  0.5606E+02
  -1.670  0.4445E+01  0.5611E+02
  -1.660  0.4441E+01  0.5615E+02
  -1.650  0.4468E+01  0.5619E+02
  -1.640  0.4383E+01  0.5624E+02
  -1.630  0.4205E+01  0.5628E+02
  -1.620  0.3909E+01  0.5632E+02
  -1.610  0.3767E+01  0.5636E+02
  -1.600  0.3803E+01  0.5640E+02
  -1.590  0.3687E+01  0.5644E+02
  -1.580  0.3597E+01  0.5648E+02
  -1.570  0.3669E+01  0.5651E+02
  -1.560  0.3454E+01  0.5655E+02
  -1.550  0.3552E+01  0.5658E+02
  -1.540  0.3485E+01  0.5662E+02
  -1.530  0.2333E+01  0.5665E+02
  -1.520  0.2176E+01  0.5667E+02
  -1.510  0.2160E+01  0.5669E+02
  -1.500  0.2126E+01  0.5671E+02
  -1.490  0.2070E+01  0.5674E+02
  -1.480  0.2070E+01  0.5676E+02
  -1.470  0.2067E+01  0.5678E+02
  -1.460  0.2068E+01  0.5680E+02
  -1.450  0.2041E+01  0.5682E+02
  -1.440  0.2026E+01  0.5684E+02
  -1.430  0.2014E+01  0.5686E+02
  -1.420  0.2004E+01  0.5688E+02
  -1.410  0.1983E+01  0.5690E+02
  -1.400  0.1962E+01  0.5692E+02
  -1.390  0.1957E+01  0.5694E+02
  -1.380  0.1969E+01  0.5696E+02
  -1.370  0.1996E+01  0.5698E+02
  -1.360  0.2027E+01  0.5700E+02
  -1.350  0.2067E+01  0.5702E+02
  -1.340  0.2092E+01  0.5704E+02
  -1.330  0.2152E+01  0.5707E+02
  -1.320  0.2120E+01  0.5709E+02
  -1.310  0.2083E+01  0.5711E+02
  -1.300  0.2074E+01  0.5713E+02
  -1.290  0.2039E+01  0.5715E+02
  -1.280  0.2043E+01  0.5717E+02
  -1.270  0.2107E+01  0.5719E+02
  -1.260  0.2242E+01  0.5721E+02
  -1.250  0.2195E+01  0.5724E+02
  -1.240  0.2223E+01  0.5726E+02
  -1.230  0.2731E+01  0.5729E+02
  -1.220  0.2264E+01  0.5731E+02
  -1.210  0.2311E+01  0.5734E+02
  -1.200  0.2379E+01  0.5736E+02
  -1.190  0.2487E+01  0.5738E+02
  -1.180  0.2536E+01  0.5741E+02
  -1.170  0.2843E+01  0.5744E+02
  -1.160  0.2722E+01  0.5746E+02
  -1.150  0.2434E+01  0.5749E+02
  -1.140  0.2508E+01  0.5751E+02
  -1.130  0.2595E+01  0.5754E+02
  -1.120  0.2711E+01  0.5756E+02
  -1.110  0.2871E+01  0.5759E+02
  -1.100  0.3065E+01  0.5762E+02
  -1.090  0.3084E+01  0.5765E+02
  -1.080  0.3271E+01  0.5768E+02
  -1.070  0.3376E+01  0.5772E+02
  -1.060  0.3758E+01  0.5775E+02
  -1.050  0.4595E+01  0.5780E+02
  -1.040  0.6346E+01  0.5785E+02
  -1.030  0.4682E+01  0.5791E+02
  -1.020  0.3195E+01  0.5795E+02
  -1.010  0.3397E+01  0.5798E+02
  -1.000  0.4300E+01  0.5802E+02
  -0.990  0.4596E+01  0.5806E+02
  -0.980  0.4328E+01  0.5811E+02
  -0.970  0.2162E+01  0.5815E+02
  -0.960  0.2141E+01  0.5817E+02
  -0.950  0.2121E+01  0.5819E+02
  -0.940  0.2102E+01  0.5822E+02
  -0.930  0.2086E+01  0.5824E+02
  -0.920  0.2065E+01  0.5826E+02
  -0.910  0.2054E+01  0.5828E+02
  -0.900  0.2075E+01  0.5830E+02
  -0.890  0.2100E+01  0.5832E+02
  -0.880  0.2120E+01  0.5834E+02
  -0.870  0.2149E+01  0.5836E+02
  -0.860  0.2148E+01  0.5838E+02
  -0.850  0.2152E+01  0.5841E+02
  -0.840  0.2149E+01  0.5843E+02
  -0.830  0.2119E+01  0.5845E+02
  -0.820  0.2083E+01  0.5847E+02
  -0.810  0.2054E+01  0.5849E+02
  -0.800  0.2022E+01  0.5851E+02
  -0.790  0.1991E+01  0.5853E+02
  -0.780  0.1960E+01  0.5855E+02
  -0.770  0.1928E+01  0.5857E+02
  -0.760  0.1919E+01  0.5859E+02
  -0.750  0.1932E+01  0.5861E+02
  -0.740  0.1957E+01  0.5863E+02
  -0.730  0.1981E+01  0.5865E+02
  -0.720  0.2010E+01  0.5867E+02
  -0.710  0.2034E+01  0.5869E+02
  -0.700  0.2078E+01  0.5871E+02
  -0.690  0.2091E+01  0.5873E+02
  -0.680  0.2103E+01  0.5875E+02
  -0.670  0.2112E+01  0.5877E+02
  -0.660  0.2396E+01  0.5879E+02
  -0.650  0.2534E+01  0.5882E+02
  -0.640  0.2767E+01  0.5885E+02
  -0.630  0.3012E+01  0.5887E+02
  -0.620  0.2987E+01  0.5890E+02
  -0.610  0.3023E+01  0.5893E+02
  -0.600  0.2359E+01  0.5896E+02
  -0.590  0.2183E+01  0.5898E+02
  -0.580  0.2175E+01  0.5900E+02
  -0.570  0.2235E+01  0.5903E+02
  -0.560  0.2255E+01  0.5905E+02
  -0.550  0.2286E+01  0.5908E+02
  -0.540  0.2266E+01  0.5910E+02
  -0.530  0.2255E+01  0.5912E+02
  -0.520  0.2264E+01  0.5914E+02
  -0.510  0.2294E+01  0.5917E+02
  -0.500  0.2393E+01  0.5919E+02
  -0.490  0.2505E+01  0.5922E+02
  -0.480  0.2434E+01  0.5924E+02
  -0.470  0.2570E+01  0.5927E+02
  -0.460  0.2593E+01  0.5929E+02
  -0.450  0.2589E+01  0.5932E+02
  -0.440  0.2720E+01  0.5935E+02
  -0.430  0.2805E+01  0.5937E+02
  -0.420  0.2841E+01  0.5940E+02
  -0.410  0.2981E+01  0.5943E+02
  -0.400  0.3105E+01  0.5946E+02
  -0.390  0.3046E+01  0.5949E+02
  -0.380  0.3087E+01  0.5953E+02
  -0.370  0.2964E+01  0.5956E+02
  -0.360  0.2909E+01  0.5959E+02
  -0.350  0.3014E+01  0.5961E+02
  -0.340  0.3239E+01  0.5965E+02
  -0.330  0.3069E+01  0.5968E+02
  -0.320  0.2765E+01  0.5971E+02
  -0.310  0.1894E+01  0.5973E+02
  -0.300  0.1533E+01  0.5975E+02
  -0.290  0.1404E+01  0.5976E+02
  -0.280  0.1302E+01  0.5978E+02
  -0.270  0.1303E+01  0.5979E+02
  -0.260  0.1313E+01  0.5980E+02
  -0.250  0.1286E+01  0.5982E+02
  -0.240  0.1995E+01  0.5983E+02
  -0.230  0.1283E+01  0.5985E+02
  -0.220  0.9053E+00  0.5986E+02
  -0.210  0.8178E+00  0.5987E+02
  -0.200  0.7544E+00  0.5987E+02
  -0.190  0.7201E+00  0.5988E+02
  -0.180  0.7045E+00  0.5989E+02
  -0.170  0.7272E+00  0.5989E+02
  -0.160  0.5332E+00  0.5990E+02
  -0.150  0.5152E+00  0.5991E+02
  -0.140  0.5037E+00  0.5991E+02
  -0.130  0.4922E+00  0.5992E+02
  -0.120  0.4918E+00  0.5992E+02
  -0.110  0.4965E+00  0.5993E+02
  -0.100  0.4777E+00  0.5993E+02
  -0.090  0.4170E+00  0.5994E+02
  -0.080  0.3951E+00  0.5994E+02
  -0.070  0.3733E+00  0.5994E+02
  -0.060  0.3514E+00  0.5995E+02
  -0.050  0.3379E+00  0.5995E+02
  -0.040  0.3309E+00  0.5995E+02
  -0.030  0.3241E+00  0.5996E+02
  -0.020  0.3163E+00  0.5996E+02
  -0.010  0.3086E+00  0.5996E+02
   0.000  0.3008E+00  0.5997E+02
   0.010  0.2762E+00  0.5997E+02
   0.020  0.2715E+00  0.5997E+02
   0.030  0.2841E+00  0.5998E+02
   0.040  0.3358E+00  0.5998E+02
   0.050  0.2963E+00  0.5998E+02
   0.060  0.2567E+00  0.5998E+02
   0.070  0.2510E+00  0.5999E+02
   0.080  0.2299E+00  0.5999E+02
   0.090  0.2089E+00  0.5999E+02
   0.100  0.1879E+00  0.5999E+02
   0.110  0.2624E+00  0.6000E+02
   0.120  0.2182E+00  0.6000E+02
   0.130  0.0000E+00  0.6000E+02
   0.140  0.0000E+00  0.6000E+02
   0.150  0.0000E+00  0.6000E+02
   0.160  0.0000E+00  0.6000E+02
   0.170  0.0000E+00  0.6000E+02
   0.180  0.0000E+00  0.6000E+02
   0.190  0.0000E+00  0.6000E+02
   0.200  0.0000E+00  0.6000E+02
   0.210  0.0000E+00  0.6000E+02
   0.220  0.0000E+00  0.6000E+02
   0.230  0.0000E+00  0.6000E+02
   0.240  0.0000E+00  0.6000E+02
   0.250  0.0000E+00  0.6000E+02
   0.260  0.0000E+00  0.6000E+02
   0.270  0.0000E+00  0.6000E+02
   0.280  0.0000E+00  0.6000E+02
   0.290  0.0000E+00  0.6000E+02
   0.300  0.0000E+00  0.6000E+02
   0.310  0.0000E+00  0.6000E+02
   0.320  0.0000E+00  0.6000E+02
   0.330  0.0000E+00  0.6000E+02
   0.340  0.0000E+00  0.6000E+02
   0.350  0.0000E+00  0.6000E+02
   0.360  0.0000E+00  0.6000E+02
   0.370  0.0000E+00  0.6000E+02
   0.380  0.0000E+00  0.6000E+02
   0.390  0.0000E+00  0.6000E+02
   0.400  0.0000E+00  0.6000E+02
   0.410  0.0000E+00  0.6000E+02
   0.420  0.0000E+00  0.6000E+02
   0.430  0.0000E+00  0.6000E+02
   0.440  0.0000E+00  0.6000E+02
   0.450  0.0000E+00  0.6000E+02
   0.460  0.0000E+00  0.6000E+02
   0.470  0.0000E+00  0.6000E+02
   0.480  0.0000E+00  0.6000E+02
   0.490  0.0000E+00  0.6000E+02
   0.500  0.0000E+00  0.6000E+02
   0.510  0.0000E+00  0.6000E+02
   0.520  0.0000E+00  0.6000E+02
   0.530  0.0000E+00  0.6000E+02
   0.540  0.0000E+00  0.6000E+02
   0.550  0.0000E+00  0.6000E+02
   0.560  0.0000E+00  0.6000E+02
   0.570  0.0000E+00  0.6000E+02
   0.580  0.0000E+00  0.6000E+02
   0.590  0.0000E+00  0.6000E+02
   0.600  0.0000E+00  0.6000E+02
   0.610  0.0000E+00  0.6000E+02
   0.620  0.0000E+00  0.6000E+02
   0.630  0.0000E+00  0.6000E+02
   0.640  0.0000E+00  0.6000E+02
   0.650  0.0000E+00  0.6000E+02
   0.660  0.0000E+00  0.6000E+02
   0.670  0.0000E+00  0.6000E+02
   0.680  0.0000E+00  0.6000E+02
   0.690  0.0000E+00  0.6000E+02
   0.700  0.0000E+00  0.6000E+02
   0.710  0.0000E+00  0.6000E+02
   0.720  0.0000E+00  0.6000E+02
   0.730  0.0000E+00  0.6000E+02
   0.740  0.0000E+00  0.6000E+02
   0.750  0.0000E+00  0.6000E+02
   0.760  0.0000E+00  0.6000E+02
   0.770  0.0000E+00  0.6000E+02
   0.780  0.0000E+00  0.6000E+02
   0.790  0.0000E+00  0.6000E+02
   0.800  0.0000E+00  0.6000E+02
   0.810  0.0000E+00  0.6000E+02
   0.820  0.0000E+00  0.6000E+02
   0.830  0.0000E+00  0.6000E+02
   0.840  0.0000E+00  0.6000E+02
   0.850  0.0000E+00  0.6000E+02
   0.860  0.0000E+00  0.6000E+02
   0.870  0.0000E+00  0.6000E+02
   0.880  0.0000E+00  0.6000E+02
   0.890  0.0000E+00  0.6000E+02
   0.900  0.0000E+00  0.6000E+02
   0.910  0.0000E+00  0.6000E+02
   0.920  0.0000E+00  0.6000E+02
   0.930  0.0000E+00  0.6000E+02
   0.940  0.0000E+00  0.6000E+02
   0.950  0.0000E+00  0.6000E+02
   0.960  0.0000E+00  0.6000E+02
   0.970  0.0000E+00  0.6000E+02
   0.980  0.0000E+00  0.6000E+02
   0.990  0.0000E+00  0.6000E+02
   1.000  0.0000E+00  0.6000E+02
   1.010  0.0000E+00  0.6000E+02
   1.020  0.0000E+00  0.6000E+02
   1.030  0.5584E+00  0.6000E+02
